V (V)	I (A)
3.612E-4	2.681E-6
3.910E-4	3.069E-6
1.737E-2	5.274E-6
2.049E-2	6.826E-6
2.239E-2	6.573E-6
3.807E-2	1.229E-5
3.925E-2	1.379E-5
4.328E-2	2.049E-5
5.621E-2	2.808E-5
5.930E-2	3.207E-5
6.118E-2	3.287E-5
7.817E-2	6.734E-5
9.569E-2	1.338E-4
1.113E-1	2.396E-4
1.132E-1	2.553E-4
1.293E-1	4.485E-4
1.312E-1	4.788E-4
1.330E-1	5.099E-4
1.493E-1	8.606E-4
1.512E-1	9.114E-4
1.531E-1	9.685E-4
1.698E-1	1.580E-3
1.729E-1	1.723E-3
1.748E-1	1.822E-3
1.767E-1	1.915E-3
1.784E-1	2.003E-3
1.802E-1	2.099E-3
1.821E-1	2.200E-3
1.849E-1	2.378E-3
1.866E-1	2.468E-3
1.892E-1	2.638E-3
1.915E-1	2.783E-3
1.947E-1	3.017E-3
1.977E-1	3.226E-3
2.007E-1	3.456E-3
2.014E-1	3.506E-3
2.014E-1	3.506E-3
2.019E-1	3.555E-3
2.044E-1	3.757E-3
2.058E-1	3.862E-3
2.064E-1	3.914E-3
2.077E-1	4.046E-3
2.093E-1	4.167E-3
2.100E-1	4.246E-3
2.105E-1	4.277E-3
2.117E-1	4.379E-3
2.140E-1	4.610E-3
2.152E-1	4.845E-3
2.305E-1	6.310E-3
2.315E-1	6.394E-3
2.327E-1	6.563E-3
2.333E-1	6.604E-3
2.334E-1	6.634E-3
2.346E-1	6.749E-3
2.352E-1	6.819E-3
2.352E-1	6.821E-3
2.365E-1	6.992E-3
2.374E-1	7.083E-3
2.382E-1	7.178E-3
2.394E-1	7.328E-3
2.394E-1	7.328E-3
2.394E-1	7.325E-3
2.396E-1	7.370E-3
2.407E-1	7.523E-3
2.412E-1	7.563E-3
2.419E-1	7.670E-3
2.431E-1	7.789E-3
2.436E-1	7.865E-3
2.443E-1	7.943E-3
2.447E-1	8.005E-3
2.450E-1	8.042E-3
2.462E-1	8.183E-3
2.464E-1	8.233E-3
2.468E-1	8.264E-3
2.477E-1	8.406E-3
2.479E-1	8.405E-3
2.479E-1	8.405E-3
2.484E-1	8.503E-3
2.494E-1	8.628E-3
2.506E-1	8.809E-3
2.510E-1	8.832E-3
2.528E-1	9.080E-3
2.534E-1	9.180E-3
2.540E-1	9.252E-3
2.545E-1	9.340E-3
2.548E-1	9.376E-3
2.559E-1	9.517E-3
2.562E-1	9.576E-3
2.573E-1	9.753E-3
2.577E-1	9.773E-3
2.577E-1	9.772E-3
2.576E-1	9.885E-3
2.728E-1	1.231E-2
2.741E-1	1.240E-2
2.753E-1	1.261E-2
2.753E-1	1.261E-2
2.759E-1	1.272E-2
2.759E-1	1.272E-2
2.770E-1	1.292E-2
2.775E-1	1.303E-2
2.777E-1	1.307E-2
2.801E-1	1.349E-2
2.807E-1	1.360E-2
2.807E-1	1.360E-2
2.812E-1	1.372E-2
2.819E-1	1.383E-2
2.826E-1	1.401E-2
2.837E-1	1.418E-2
2.850E-1	1.441E-2
2.855E-1	1.453E-2
2.859E-1	1.460E-2
2.869E-1	1.481E-2
2.881E-1	1.510E-2
2.887E-1	1.520E-2
2.897E-1	1.535E-2
2.900E-1	1.544E-2
2.912E-1	1.573E-2
2.915E-1	1.577E-2
2.921E-1	1.585E-2
2.921E-1	1.585E-2
2.921E-1	1.641E-2
3.090E-1	1.967E-2
3.094E-1	1.977E-2
3.104E-1	2.007E-2
3.112E-1	2.021E-2
3.112E-1	2.022E-2
3.124E-1	2.053E-2
3.135E-1	2.082E-2
3.136E-1	2.081E-2
3.138E-1	2.088E-2
3.142E-1	2.096E-2
3.142E-1	2.096E-2
3.142E-1	2.096E-2
3.142E-1	2.096E-2
3.228E-1	2.405E-2
3.313E-1	2.552E-2
3.318E-1	2.567E-2
3.328E-1	2.594E-2
3.338E-1	2.628E-2
3.349E-1	2.657E-2
3.360E-1	2.685E-2
3.363E-1	2.695E-2
3.367E-1	2.703E-2
3.375E-1	2.732E-2
3.378E-1	2.737E-2
3.378E-1	2.737E-2
3.383E-1	2.751E-2
3.396E-1	2.790E-2
3.406E-1	2.825E-2
3.415E-1	2.848E-2
3.430E-1	2.893E-2
3.439E-1	2.918E-2
3.442E-1	2.924E-2
3.442E-1	2.924E-2
3.456E-1	2.968E-2
3.479E-1	3.042E-2
3.488E-1	3.070E-2
3.501E-1	3.103E-2
3.503E-1	3.110E-2
3.508E-1	3.121E-2
3.508E-1	3.121E-2
3.516E-1	3.155E-2
3.520E-1	3.158E-2
3.519E-1	3.157E-2
3.519E-1	3.157E-2
3.526E-1	3.180E-2
3.637E-1	3.618E-2
3.688E-1	3.691E-2
3.690E-1	3.699E-2
3.718E-1	3.784E-2
3.718E-1	3.784E-2
3.722E-1	3.801E-2
3.734E-1	3.842E-2
3.742E-1	3.862E-2
3.745E-1	3.877E-2
3.754E-1	3.900E-2
3.770E-1	3.956E-2
3.771E-1	3.958E-2
3.778E-1	3.983E-2
3.805E-1	4.070E-2
3.814E-1	4.102E-2
3.817E-1	4.109E-2
3.972E-1	4.628E-2
3.990E-1	4.688E-2
3.992E-1	4.694E-2
3.992E-1	4.694E-2
4.005E-1	4.735E-2
4.022E-1	4.801E-2
4.034E-1	4.835E-2
4.034E-1	4.849E-2
4.154E-1	5.330E-2
4.193E-1	5.378E-2
4.205E-1	5.412E-2
4.209E-1	5.426E-2
4.209E-1	5.472E-2
4.366E-1	5.944E-2
4.371E-1	5.963E-2
4.390E-1	6.019E-2
4.393E-1	6.028E-2
4.412E-1	6.091E-2
4.414E-1	6.097E-2
4.427E-1	6.142E-2
4.438E-1	6.167E-2
4.438E-1	6.167E-2
4.438E-1	6.167E-2
4.440E-1	6.174E-2
4.458E-1	6.232E-2
4.461E-1	6.240E-2
4.473E-1	6.281E-2
4.485E-1	6.308E-2
4.487E-1	6.316E-2
4.497E-1	6.348E-2
4.503E-1	6.360E-2
4.508E-1	6.380E-2
4.521E-1	6.410E-2
4.523E-1	6.415E-2
4.527E-1	6.427E-2
4.536E-1	6.461E-2
4.567E-1	6.531E-2
4.589E-1	6.582E-2
4.600E-1	6.606E-2
4.636E-1	6.669E-2
4.646E-1	6.674E-2
4.646E-1	6.673E-2
4.646E-1	6.671E-2
4.839E-1	4.984E-2
4.839E-1	4.983E-2
4.843E-1	4.966E-2
4.853E-1	4.945E-2
4.853E-1	4.945E-2
4.853E-1	4.945E-2
4.859E-1	4.925E-2
4.873E-1	4.896E-2
4.886E-1	4.868E-2
4.905E-1	4.829E-2
4.905E-1	4.829E-2
4.905E-1	4.829E-2
4.905E-1	4.829E-2
4.912E-1	4.816E-2
4.925E-1	4.792E-2
4.929E-1	4.784E-2
4.942E-1	4.761E-2
4.789E-1	5.164E-2
4.783E-1	5.180E-2
4.779E-1	5.195E-2
4.759E-1	5.328E-2
4.724E-1	5.698E-2
4.715E-1	5.818E-2
4.676E-1	6.465E-2
4.665E-1	6.624E-2
4.666E-1	6.608E-2
4.683E-1	6.289E-2
4.695E-1	6.135E-2
4.701E-1	6.038E-2
4.722E-1	5.666E-2
4.750E-1	5.373E-2
4.750E-1	5.371E-2
4.781E-1	5.187E-2
4.794E-1	5.117E-2
4.805E-1	5.088E-2
4.805E-1	5.088E-2
4.839E-1	4.982E-2
4.852E-1	4.948E-2
4.858E-1	4.928E-2
4.872E-1	4.898E-2
4.878E-1	4.881E-2
4.886E-1	4.869E-2
4.892E-1	4.850E-2
4.907E-1	4.823E-2
4.912E-1	4.816E-2
4.921E-1	4.794E-2
4.939E-1	4.765E-2
4.944E-1	4.757E-2
4.958E-1	4.734E-2
4.958E-1	4.732E-2
4.967E-1	4.717E-2
4.983E-1	4.695E-2
5.003E-1	4.666E-2
5.014E-1	4.655E-2
5.015E-1	4.654E-2
5.035E-1	4.625E-2
5.041E-1	4.620E-2
5.050E-1	4.607E-2
5.061E-1	4.598E-2
5.067E-1	4.589E-2
5.093E-1	4.560E-2
5.097E-1	4.556E-2
5.100E-1	4.552E-2
5.111E-1	4.543E-2
5.118E-1	4.534E-2
5.132E-1	4.518E-2
5.150E-1	4.500E-2
5.163E-1	4.488E-2
5.171E-1	4.479E-2
5.185E-1	4.467E-2
5.189E-1	4.463E-2
5.189E-1	4.463E-2
5.189E-1	4.461E-2
5.200E-1	4.450E-2
5.204E-1	4.444E-2
5.216E-1	4.431E-2
5.220E-1	4.427E-2
5.239E-1	4.402E-2
5.240E-1	4.401E-2
5.261E-1	4.366E-2
5.274E-1	4.350E-2
5.287E-1	4.336E-2
5.292E-1	4.332E-2
5.305E-1	4.317E-2
5.318E-1	4.305E-2
5.318E-1	4.305E-2
5.492E-1	4.067E-2
5.493E-1	4.067E-2
5.506E-1	4.051E-2
5.512E-1	4.031E-2
5.525E-1	3.991E-2
5.533E-1	3.907E-2
5.551E-1	3.658E-2
5.552E-1	3.644E-2
5.665E-1	2.303E-2
5.751E-1	1.682E-2
5.763E-1	1.674E-2
5.763E-1	1.679E-2
5.752E-1	1.679E-2
5.751E-1	1.681E-2
5.751E-1	1.681E-2
5.745E-1	1.684E-2
5.647E-1	2.415E-2
5.631E-1	2.599E-2
5.617E-1	2.782E-2
5.607E-1	2.873E-2
5.598E-1	2.975E-2
5.579E-1	3.274E-2
5.562E-1	3.485E-2
5.552E-1	3.620E-2
5.552E-1	3.620E-2
5.552E-1	3.632E-2
5.689E-1	1.919E-2
5.690E-1	1.901E-2
5.706E-1	1.773E-2
5.726E-1	1.696E-2
5.737E-1	1.684E-2
5.827E-1	1.673E-2
5.833E-1	1.674E-2
5.850E-1	1.677E-2
5.864E-1	1.680E-2
5.890E-1	1.685E-2
5.902E-1	1.688E-2
5.914E-1	1.690E-2
5.913E-1	1.690E-2
5.938E-1	1.695E-2
5.959E-1	1.700E-2
5.971E-1	1.704E-2
5.987E-1	1.707E-2
5.995E-1	1.709E-2
6.001E-1	1.711E-2
6.020E-1	1.716E-2
6.025E-1	1.717E-2
6.043E-1	1.722E-2
6.054E-1	1.725E-2
6.062E-1	1.727E-2
6.062E-1	1.727E-2
6.062E-1	1.727E-2
6.065E-1	1.728E-2
6.076E-1	1.732E-2
6.081E-1	1.733E-2
6.094E-1	1.737E-2
6.105E-1	1.740E-2
6.113E-1	1.742E-2
6.132E-1	1.748E-2
6.144E-1	1.752E-2
6.150E-1	1.754E-2
6.151E-1	1.754E-2
6.199E-1	1.770E-2
6.262E-1	1.791E-2
6.312E-1	1.809E-2
6.361E-1	1.828E-2
6.399E-1	1.842E-2
6.455E-1	1.866E-2
6.485E-1	1.877E-2
6.530E-1	1.897E-2
6.541E-1	1.902E-2
6.632E-1	1.963E-2
6.765E-1	2.009E-2
6.815E-1	2.037E-2
6.863E-1	2.065E-2
6.894E-1	2.083E-2
6.926E-1	2.103E-2
6.994E-1	2.147E-2
7.148E-1	2.260E-2
7.161E-1	2.272E-2
7.178E-1	2.284E-2
7.178E-1	2.285E-2
7.186E-1	2.294E-2
7.197E-1	2.300E-2
7.203E-1	2.307E-2
7.218E-1	2.320E-2
7.241E-1	2.338E-2
7.241E-1	2.338E-2
7.241E-1	2.338E-2
7.257E-1	2.353E-2
7.258E-1	2.353E-2
7.276E-1	2.370E-2
7.279E-1	2.375E-2
7.291E-1	2.384E-2
7.307E-1	2.399E-2
7.320E-1	2.413E-2
7.330E-1	2.422E-2
7.345E-1	2.436E-2
7.353E-1	2.446E-2
7.370E-1	2.462E-2
7.375E-1	2.466E-2
7.380E-1	2.474E-2
7.387E-1	2.479E-2
7.541E-1	2.652E-2
7.544E-1	2.658E-2
7.552E-1	2.667E-2
7.564E-1	2.682E-2
7.567E-1	2.687E-2
7.602E-1	2.734E-2
7.617E-1	2.751E-2
7.631E-1	2.771E-2
7.638E-1	2.779E-2
7.645E-1	2.791E-2
7.649E-1	2.796E-2
7.661E-1	2.811E-2
7.661E-1	2.811E-2
7.681E-1	2.840E-2
7.698E-1	2.864E-2
7.698E-1	2.864E-2
7.717E-1	2.890E-2
7.735E-1	2.920E-2
7.753E-1	2.944E-2
7.753E-1	2.947E-2
7.770E-1	2.974E-2
7.784E-1	2.994E-2
7.805E-1	3.029E-2
7.821E-1	3.055E-2
7.827E-1	3.061E-2
7.828E-1	3.064E-2
7.835E-1	3.076E-2
7.846E-1	3.094E-2
7.850E-1	3.101E-2
7.874E-1	3.140E-2
7.877E-1	3.147E-2
7.880E-1	3.151E-2
7.882E-1	3.157E-2
7.907E-1	3.201E-2
7.929E-1	3.236E-2
7.944E-1	3.264E-2
7.946E-1	3.268E-2
7.995E-1	3.362E-2
8.011E-1	3.392E-2
8.026E-1	3.417E-2
8.048E-1	3.467E-2
8.228E-1	3.847E-2
8.228E-1	3.848E-2
8.234E-1	3.864E-2
8.251E-1	3.904E-2
8.279E-1	3.969E-2
8.344E-1	4.127E-2
8.390E-1	4.247E-2
8.436E-1	4.364E-2
8.484E-1	4.494E-2
8.537E-1	4.644E-2
8.587E-1	4.793E-2
8.767E-1	5.337E-2
8.795E-1	5.429E-2
8.813E-1	5.487E-2
8.843E-1	5.586E-2
8.875E-1	5.704E-2
8.912E-1	5.828E-2
8.954E-1	5.970E-2
8.954E-1	5.970E-2
